 #    Sim.      Temp.     Ph.-F.   Time-step    dt PF  Ph.1 Ph.2     Pointer
 #  time [s]     [K]       steps      [s]        [s]   (PF) (PF)        (PF)
  0.0000      1100.000         0    8.63E-03  0.00E+00    0    0           0
 0.40000      1100.000       660    8.65E-04  1.24E-03    1    1       57241
 0.80000      1100.000       159    4.29E-03  6.13E-03    1    1      120886
  1.2000      1100.000       162    2.12E-03  3.02E-03    1    1        9261
  1.6000      1100.000       132    3.87E-03  5.53E-03    1    1      115827
  2.0000      1100.000       108    5.76E-03  8.22E-03    1    1       77138
  2.4000      1100.000       122    4.68E-03  7.15E-03    1    1       56833
  2.8000      1100.000       102    6.01E-03  8.59E-03    1    1       56833
  3.2000      1100.000        90    7.11E-03  1.02E-02    1    1       92885
  3.6000      1100.000        88    4.52E-03  6.46E-03    1    1        9861
  4.0000      1100.000       103    7.15E-03  1.02E-02    1    1       92885
  4.4010      1100.000        93    2.56E-03  3.66E-03    1    1        9860
  4.8000      1100.000        85    6.34E-03  9.06E-03    1    1       41736
  5.2045      1100.000        90    7.26E-03  1.04E-02    1    1       14745
  5.6020      1100.000       102    4.03E-03  5.76E-03    1    1       46560
  6.0000      1100.000       122    2.23E-03  3.18E-03    1    1       59397
  6.4025      1100.000       101    7.31E-03  1.04E-02    1    1       14336
  6.8054      1100.000        86    6.45E-03  9.22E-03    1    1       47535
  7.2000      1100.000        85    5.26E-03  7.52E-03    1    1      121710
  7.6014      1100.000        91    5.73E-03  8.19E-03    1    1      123352
  8.0000      1100.000        95    6.24E-03  8.92E-03    1    1      124173
  8.4000      1100.000        87    5.89E-03  8.41E-03    1    1       49834
  8.8024      1100.000        99    4.41E-03  6.30E-03    1    1       46246
  9.2031      1100.000       103    4.07E-03  5.82E-03    1    1       83145
  9.6000      1100.000       101    4.29E-03  6.13E-03    1    1       64822
  10.000      1100.000        94    6.66E-03  9.52E-03    1    1       50370
  10.401      1100.000        87    5.84E-03  8.34E-03    1    1       47109
  10.800      1100.000        89    5.17E-03  7.38E-03    1    1       51896
  11.200      1100.000        99    5.02E-03  7.17E-03    1    1      116384
  11.600      1100.000       113    5.32E-03  7.60E-03    1    1       55789
  12.000      1100.000        97    5.47E-03  7.82E-03    1    1      112274
  12.401      1100.000       105    5.50E-03  7.86E-03    1    1       57628
  12.802      1100.000       120    3.98E-03  5.69E-03    1    1       48950
  13.200      1100.000        98    6.00E-03  8.57E-03    1    1      108166
  13.603      1100.000        87    6.52E-03  9.31E-03    1    1       55325
  14.000      1100.000       104    4.46E-03  6.37E-03    1    1      104469
  14.400      1100.000       120    2.05E-03  2.92E-03    1    1      105516
  14.804      1100.000       108    4.67E-03  6.67E-03    1    1      106935
  15.203      1100.000       101    3.62E-03  5.18E-03    1    1       45250
  15.600      1100.000       112    4.57E-03  6.88E-03    1    1       25653
  16.000      1100.000       117    2.42E-03  3.46E-03    1    1       16546
  16.401      1100.000       115    3.07E-03  4.38E-03    1    1      129597
  16.800      1100.000       109    5.18E-03  7.40E-03    1    1       93470
  17.201      1100.000       113    2.89E-03  4.13E-03    1    1       96224
  17.603      1100.000       103    3.37E-03  4.81E-03    1    1       10866
  18.000      1100.000       117    5.36E-03  7.66E-03    1    1        7843
  18.401      1100.000       102    5.67E-03  8.10E-03    1    1       13264
  18.801      1100.000       113    2.70E-03  3.86E-03    1    1       94221
  19.200      1100.000       113    2.89E-03  4.12E-03    1    1       34678
  19.602      1100.000       117    3.67E-03  5.24E-03    1    1       51169
  20.000      1100.000       123    3.73E-03  5.33E-03    1    1       45565
  20.400      1100.000       122    4.92E-03  7.03E-03    1    1       97281
  20.802      1100.000       103    2.99E-03  4.28E-03    1    1      120321
  21.200      1100.000       128    5.12E-03  7.31E-03    1    1       14026
  21.600      1100.000       113    4.10E-03  5.86E-03    1    1       70818
  22.000      1100.000       111    4.23E-03  6.04E-03    1    1      117339
  22.402      1100.000       116    4.29E-03  6.13E-03    1    1      123056
  22.800      1100.000       116    4.12E-03  5.89E-03    1    1       90467
  23.204      1100.000       108    4.34E-03  6.20E-03    1    1       54418
  23.603      1100.000       126    3.75E-03  5.36E-03    1    1      112847
  24.000      1100.000       121    4.84E-03  6.91E-03    1    1       70439
  24.401      1100.000       115    5.12E-03  7.32E-03    1    1       62217
  24.803      1100.000       106    4.55E-03  6.51E-03    1    1       40619
  25.200      1100.000       114    3.89E-03  5.56E-03    1    1       64675
  25.603      1100.000       107    4.38E-03  6.26E-03    1    1       19232
  26.000      1100.000       108    3.25E-03  4.65E-03    1    1      114366
  26.400      1100.000       113    5.24E-03  7.49E-03    1    1        9051
  26.803      1100.000       103    4.17E-03  5.96E-03    1    1       59178
  27.200      1100.000       105    5.47E-03  7.81E-03    1    1       54656
  27.600      1100.000        98    3.77E-03  5.39E-03    1    1        9610
  28.000      1100.000        97    5.48E-03  7.83E-03    1    1       25939
  28.403      1100.000       101    4.26E-03  6.09E-03    1    1       26583
  28.800      1100.000       102    5.64E-03  8.06E-03    1    1       25510
  29.201      1100.000        88    5.68E-03  8.12E-03    1    1       26740
  29.604      1100.000        98    5.81E-03  8.30E-03    1    1       25093
  30.000      1100.000       101    5.40E-03  7.71E-03    1    1       40272
  30.403      1100.000       117    4.91E-03  7.01E-03    1    1       27551
  30.804      1100.000       103    4.50E-03  6.42E-03    1    1       10443
  31.200      1100.000       108    4.46E-03  6.37E-03    1    1       10442
  31.602      1100.000        95    5.82E-03  8.32E-03    1    1       77628
  32.000      1100.000        81    5.39E-03  7.70E-03    1    1      100627
  32.400      1100.000        73    7.42E-03  1.06E-02    1    1       75167
  32.802      1100.000        83    5.16E-03  7.37E-03    1    1       55407
  33.203      1100.000        90    4.67E-03  6.68E-03    1    1        5949
  33.600      1100.000        87    7.18E-03  1.03E-02    1    1       19262
  34.000      1100.000        84    3.60E-03  5.14E-03    1    1       19263
  34.400      1100.000        93    5.13E-03  8.13E-03    1    1       10034
  34.800      1100.000       109    3.58E-03  5.12E-03    1    1       19675
  35.202      1100.000        99    7.61E-03  1.09E-02    1    1       10033
  35.603      1100.000       124    4.58E-03  6.55E-03    1    1       51701
  36.000      1100.000       103    7.57E-03  1.08E-02    1    1       20500
  36.401      1100.000       115    2.24E-03  3.21E-03    1    1        6356
  36.803      1100.000       118    3.00E-03  4.28E-03    1    1        6356
  37.200      1100.000       103    5.83E-03  8.33E-03    1    1        9625
  37.603      1100.000       108    6.19E-03  9.70E-03    1    1       51288
  38.000      1100.000       144    3.75E-03  1.14E-02    1    1        6467
  38.400      1100.000       135    8.63E-03  1.23E-02    1    1      103949
  38.802      1100.000       112    4.84E-03  6.92E-03    1    1      112871
  39.201      1100.000        99    6.16E-03  1.01E-02    1    1         775
  39.600      1100.000       116    6.42E-03  1.04E-02    1    1         815
  40.000      1100.000       116    6.10E-03  8.72E-03    1    1        8806
  40.404      1100.000       115    4.02E-03  7.30E-03    1    1        8805
  40.800      1100.000        95    4.41E-03  6.30E-03    1    1        7580
  41.205      1100.000        68    8.59E-03  1.23E-02    1    1      113048
  41.603      1100.000        65    7.85E-03  1.12E-02    1    1      115449
  42.000      1100.000        79    5.81E-03  8.31E-03    1    1      101521
  42.405      1100.000        89    6.87E-03  9.81E-03    1    1      105234
  42.803      1100.000        74    7.61E-03  1.09E-02    1    1      105240
  43.200      1100.000        68    8.03E-03  1.15E-02    1    1      106473
  43.605      1100.000        66    8.45E-03  1.21E-02    1    1      113463
  44.000      1100.000        60    8.38E-03  1.20E-02    1    1       97810
  44.400      1100.000        62    8.52E-03  1.22E-02    1    1      113051
  44.804      1100.000        70    5.95E-03  8.50E-03    1    1       97396
  45.202      1100.000        67    7.46E-03  1.07E-02    1    1       95341
  45.600      1100.000        70    2.81E-03  4.01E-03    1    1      126561
  46.000      1100.000        84    6.86E-03  9.80E-03    1    1      111005
  46.404      1100.000        67    8.63E-03  1.23E-02    1    1       94107
  46.800      1100.000        62    6.74E-03  9.63E-03    1    1      113305
  47.204      1100.000        69    5.06E-03  7.23E-03    1    1       23847
  47.601      1100.000        69    5.61E-03  8.02E-03    1    1       23847
  48.000      1100.000        57    2.63E-03  3.76E-03    1    1        4821
  48.403      1100.000        70    6.25E-03  8.92E-03    1    1       92860
  48.804      1100.000        70    8.63E-03  1.23E-02    1    1       92035
  49.200      1100.000        60    8.63E-03  1.23E-02    1    1       42418
  49.605      1100.000        68    8.63E-03  1.23E-02    1    1       42008
  50.000      1100.000        59    8.63E-03  1.23E-02    1    1       42008
