 #    Sim.      Temp.     Ph.-F.   Time-step    dt PF  Ph.1 Ph.2     Pointer
 #  time [s]     [K]       steps      [s]        [s]   (PF) (PF)        (PF)
  0.0000      1100.000         0    1.11E-02  0.00E+00    0    0           0
 0.40000      1100.000       336    3.41E-03  7.65E-03    1    1       43938
 0.80000      1100.000       302    1.87E-03  2.67E-03    1    1       35498
  1.2000      1100.000       364    1.51E-03  2.16E-03    1    1       56359
  1.6000      1100.000       350    7.86E-04  1.12E-03    1    1       88948
  2.0000      1100.000       366    1.02E-03  1.78E-03    1    1      115270
  2.4000      1100.000       116    4.61E-03  6.59E-03    1    1       20672
  2.8000      1100.000        85    7.12E-03  1.02E-02    1    1      114866
  3.2000      1100.000        86    7.51E-03  1.07E-02    1    1       40973
  3.6000      1100.000        83    7.79E-03  1.11E-02    1    1      116042
  4.0000      1100.000        95    6.40E-03  9.15E-03    1    1       39737
  4.4000      1100.000        89    5.01E-03  7.15E-03    1    1       41789
  4.8000      1100.000        86    7.07E-03  1.01E-02    1    1       35960
  5.2007      1100.000        81    4.29E-03  6.13E-03    1    1      118013
  5.6029      1100.000        85    7.87E-03  1.12E-02    1    1       62742
  6.0000      1100.000        74    8.28E-03  1.18E-02    1    1       59039
  6.4032      1100.000        84    4.52E-03  6.45E-03    1    1       55997
  6.8059      1100.000        84    6.28E-03  8.98E-03    1    1       63564
  7.2000      1100.000        92    8.39E-03  1.23E-02    1    1       48717
  7.6023      1100.000        88    5.30E-03  7.58E-03    1    1      118012
  8.0000      1100.000        92    5.09E-03  7.28E-03    1    1       88242
  8.4000      1100.000        99    4.37E-03  6.24E-03    1    1       57890
  8.8042      1100.000       100    4.82E-03  6.88E-03    1    1       37600
  9.2006      1100.000       117    2.53E-03  3.61E-03    1    1       91538
  9.6000      1100.000       125    1.96E-03  2.80E-03    1    1       91538
  10.000      1100.000       108    2.62E-03  3.75E-03    1    1      114363
  10.401      1100.000       108    3.60E-03  5.14E-03    1    1       94223
  10.800      1100.000       114    2.47E-03  3.53E-03    1    1       35219
  11.202      1100.000       115    4.17E-03  5.96E-03    1    1       38343
  11.600      1100.000       106    5.17E-03  7.39E-03    1    1       62544
  12.000      1100.000       111    6.05E-03  8.65E-03    1    1      128250
  12.402      1100.000       107    3.20E-03  4.57E-03    1    1       86868
  12.804      1100.000       123    5.94E-03  9.20E-03    1    1       12038
  13.200      1100.000       132    4.61E-03  6.58E-03    1    1       70852
  13.601      1100.000       137    3.36E-03  4.79E-03    1    1       64795
  14.000      1100.000       108    2.93E-03  4.18E-03    1    1       27975
  14.400      1100.000       130    4.13E-03  5.90E-03    1    1       78661
  14.803      1100.000       132    6.23E-03  8.90E-03    1    1       55375
  15.200      1100.000       105    5.06E-03  7.23E-03    1    1       79684
  15.600      1100.000       109    4.74E-03  6.78E-03    1    1        9910
  16.000      1100.000       123    5.55E-03  7.93E-03    1    1       30944
  16.402      1100.000       120    4.29E-03  6.13E-03    1    1       69754
  16.800      1100.000       110    2.66E-03  3.80E-03    1    1       70979
  17.201      1100.000       121    4.16E-03  5.94E-03    1    1       29780
  17.601      1100.000       123    1.89E-03  2.70E-03    1    1       95445
  18.000      1100.000       127    2.88E-03  4.12E-03    1    1       29371
  18.402      1100.000       114    4.26E-03  6.08E-03    1    1        2483
  18.803      1100.000       124    4.53E-03  6.47E-03    1    1       29370
  19.200      1100.000       112    2.73E-03  3.90E-03    1    1       28105
  19.601      1100.000       104    5.19E-03  7.41E-03    1    1       40493
  20.000      1100.000       107    6.86E-03  9.81E-03    1    1       75276
  20.400      1100.000       117    4.81E-03  6.87E-03    1    1       26319
  20.802      1100.000       113    4.14E-03  5.91E-03    1    1       29338
  21.201      1100.000       115    2.86E-03  4.09E-03    1    1       11958
  21.600      1100.000       125    4.27E-03  6.10E-03    1    1       35189
  22.000      1100.000       131    4.17E-03  5.96E-03    1    1       28436
  22.402      1100.000       144    4.34E-03  6.80E-03    1    1       25909
  22.800      1100.000       143    5.54E-03  1.15E-02    1    1       52586
  23.205      1100.000       178    6.91E-03  9.87E-03    1    1       58445
  23.603      1100.000       114    5.01E-03  1.25E-02    1    1       20487
  24.000      1100.000       114    3.52E-03  5.03E-03    1    1       40903
  24.400      1100.000        91    5.38E-03  7.68E-03    1    1      121827
  24.801      1100.000       116    3.53E-03  5.05E-03    1    1        5442
  25.200      1100.000       131    2.52E-03  3.60E-03    1    1      113698
  25.605      1100.000       109    5.85E-03  8.36E-03    1    1      129313
  26.000      1100.000       103    2.25E-03  3.22E-03    1    1       40902
  26.400      1100.000       115    7.34E-03  1.05E-02    1    1       72441
  26.800      1100.000        93    5.11E-03  7.30E-03    1    1       38463
  27.202      1100.000       101    3.23E-03  4.61E-03    1    1       32807
  27.600      1100.000       105    5.21E-03  7.45E-03    1    1       64369
  28.000      1100.000       101    5.71E-03  8.15E-03    1    1       15058
  28.400      1100.000        92    5.11E-03  7.30E-03    1    1       77624
  28.800      1100.000        92    2.20E-03  3.15E-03    1    1      116051
  29.205      1100.000       105    5.50E-03  8.59E-03    1    1      111142
  29.602      1100.000       116    4.27E-03  6.10E-03    1    1      115723
  30.000      1100.000       112    5.10E-03  7.28E-03    1    1       76067
  30.400      1100.000       114    4.48E-03  6.39E-03    1    1       63206
  30.801      1100.000       110    3.35E-03  4.79E-03    1    1       12814
  31.200      1100.000       121    4.21E-03  6.11E-03    1    1       19155
  31.602      1100.000       136    4.71E-03  1.21E-02    1    1       86351
  32.000      1100.000       121    6.81E-03  9.73E-03    1    1       42137
  32.400      1100.000       138    1.99E-03  2.84E-03    1    1      114009
  32.801      1100.000       145    3.49E-03  4.99E-03    1    1       55283
  33.202      1100.000       134    3.28E-03  4.69E-03    1    1       11993
  33.600      1100.000       135    2.60E-03  3.71E-03    1    1      114009
  34.000      1100.000       108    5.40E-03  7.71E-03    1    1       32806
  34.401      1100.000       143    3.82E-03  8.24E-03    1    1      100040
  34.800      1100.000       125    2.45E-03  3.50E-03    1    1       55283
  35.204      1100.000       117    4.16E-03  5.94E-03    1    1       13322
  35.602      1100.000       114    3.27E-03  4.67E-03    1    1      113598
  36.000      1100.000       107    4.06E-03  5.80E-03    1    1      110448
  36.401      1100.000       134    2.06E-03  2.95E-03    1    1      113661
  36.801      1100.000       141    5.83E-03  8.33E-03    1    1       45980
  37.200      1100.000       136    3.70E-03  5.28E-03    1    1      109171
  37.604      1100.000       127    5.26E-03  1.13E-02    1    1       65406
  38.000      1100.000       110    5.47E-03  7.82E-03    1    1       43783
  38.400      1100.000       130    2.98E-03  4.26E-03    1    1      113187
  38.801      1100.000       148    1.85E-03  2.64E-03    1    1       44194
  39.202      1100.000       159    2.32E-03  3.32E-03    1    1       45018
  39.600      1100.000       164    3.48E-03  4.97E-03    1    1       45018
  40.000      1100.000       126    3.12E-03  4.46E-03    1    1      101273
  40.402      1100.000       142    7.11E-03  1.21E-02    1    1       46553
  40.800      1100.000       148    2.09E-03  2.99E-03    1    1        9530
  41.201      1100.000       126    7.24E-03  1.34E-02    1    1      120391
  41.603      1100.000       125    7.96E-03  1.14E-02    1    1       71716
  42.000      1100.000       111    7.83E-03  1.12E-02    1    1       68016
  42.405      1100.000       115    6.00E-03  8.58E-03    1    1       56563
  42.802      1100.000       121    3.42E-03  4.88E-03    1    1       34536
  43.200      1100.000        97    4.00E-03  5.72E-03    1    1      112365
  43.601      1100.000       127    2.85E-03  4.07E-03    1    1      108260
  44.000      1100.000       121    6.88E-03  1.51E-02    1    1       64725
  44.400      1100.000       131    4.72E-03  7.67E-03    1    1      119230
  44.801      1100.000       150    2.83E-03  4.05E-03    1    1      107849
  45.204      1100.000       120    5.70E-03  1.40E-02    1    1       56141
  45.600      1100.000       106    3.05E-03  4.35E-03    1    1      102506
  46.000      1100.000       122    3.43E-03  4.90E-03    1    1      113251
  46.401      1100.000       115    3.47E-03  4.96E-03    1    1      107438
  46.800      1100.000       106    2.52E-03  3.60E-03    1    1      113251
  47.200      1100.000       100    3.03E-03  4.32E-03    1    1      107027
  47.601      1100.000        96    5.51E-03  7.88E-03    1    1       91860
  48.000      1100.000        78    6.48E-03  9.26E-03    1    1       91859
  48.403      1100.000       121    3.02E-03  4.31E-03    1    1      110436
  48.804      1100.000       138    4.05E-03  6.83E-03    1    1      103328
  49.200      1100.000        97    3.52E-03  5.03E-03    1    1      125353
  49.600      1100.000        98    5.25E-03  7.49E-03    1    1      106287
  50.000      1100.000        82    1.10E-02  1.57E-02    1    1       64662
