 #    Sim.      Temp.     Ph.-F.   Time-step   dt PF   Ph.1 Ph.2     Pointer  dt Seg.  Ph.1 Ph.2     Pointer
 #  time [s]     [K]       steps      [s]       [s]    (PF) (PF)        (PF)    [s]    (S.) (S.)      (Seg.)
  0.0000      1786.000         0    1.13E-04  0.00E+00    0    0           0  2.23-308    0    0           0
 0.20016      1785.800       250    9.51E-04  9.64E-04    0    1         262  1.06E-03    0    1        2966
 0.40000      1785.600       222    8.97E-04  1.07E-03    0    1         271  9.97E-04    0    1        4695
 0.60016      1785.400       226    8.96E-04  1.33E-03    0    1         279  9.96E-04    0    1        6177
 0.80027      1785.200       231    8.81E-04  1.27E-03    0    1         288  9.78E-04    0    1        2973
  1.0000      1785.000       238    8.32E-04  1.05E-03    0    1         297  9.25E-04    0    1        2487
  1.2002      1784.800       242    8.16E-04  1.17E-03    0    1         306  9.07E-04    0    1        3468
  1.4001      1784.600       243    8.28E-04  9.70E-04    0    1         316  9.20E-04    0    1        4951
  1.6001      1784.400       245    8.04E-04  9.37E-04    0    1         326  8.94E-04    0    1        3481
  1.8007      1784.199       246    8.05E-04  1.04E-03    0    1         336  8.95E-04    0    1        3226
  2.0002      1784.000       248    8.09E-04  9.95E-04    0    1         347  8.99E-04    0    1        4211
  2.2000      1783.800       251    7.93E-04  9.25E-04    0    1         359  8.81E-04    0    1        6930
  2.4005      1783.600       254    7.79E-04  8.51E-04    0    1         371  8.65E-04    0    1        3721
  2.6004      1783.400       257    7.78E-04  8.01E-04    0    1         384  8.64E-04    0    1        4972
  2.8001      1783.200       262    7.12E-04  7.12E-04    0    1         398  8.58E-04    0    1        5226
  3.0003      1783.000       271    7.43E-04  7.43E-04    0    1         412  8.44E-04    0    1        4216
  3.2005      1782.800       283    7.08E-04  7.08E-04    0    1         427  8.54E-04    0    1        5201
  3.4006      1782.599       295    7.20E-04  7.20E-04    0    1         442  8.47E-04    0    1        5983
  3.6005      1782.399       304    7.06E-04  7.06E-04    0    1         458  8.23E-04    0    1        4711
  3.8007      1782.199       298    7.11E-04  7.11E-04    0    1         474  8.29E-04    0    1        6718
  4.0002      1782.000       271    7.36E-04  1.43E-03    0    1         486  8.17E-04    0    1        5943
  4.2006      1781.799       272    7.34E-04  1.53E-03    0    1       24702  8.16E-04    0    1        5206
  4.4002      1781.600       274    7.25E-04  1.50E-03    0    1       25937  8.06E-04    0    1        6777
  4.6004      1781.400       276    7.18E-04  1.48E-03    0    1       27172  7.98E-04    0    1        6438
  4.8005      1781.200       279    7.17E-04  1.44E-03    0    1       29642  7.97E-04    0    1        6812
  5.0000      1781.000       284    6.93E-04  1.43E-03    0    1       29889  7.70E-04    0    1         740
  5.2004      1780.800       285    7.06E-04  1.39E-03    0    1       31371  7.84E-04    0    1        8026
  5.4006      1780.599       287    7.02E-04  1.35E-03    0    1       32853  7.80E-04    0    1        6933
  5.6007      1780.399       288    7.00E-04  1.34E-03    0    1       35570  7.77E-04    0    1        8766
  5.8003      1780.200       289    6.81E-04  1.32E-03    0    1       36064  7.57E-04    0    1        1728
  6.0006      1779.999       292    6.67E-04  1.28E-03    0    1       38781  7.41E-04    0    1        1975
  6.2007      1779.799       293    6.74E-04  1.26E-03    0    1       40510  7.49E-04    0    1        2222
  6.4002      1779.600       295    6.76E-04  1.24E-03    0    1       42239  7.51E-04    0    1        8610
  6.6001      1779.400       299    6.76E-04  1.58E-03    0    1       42733  7.51E-04    0    1        9106
  6.8001      1779.200       300    6.74E-04  1.22E-03    0    1       44709  7.49E-04    0    1        8170
  7.0006      1778.999       302    6.46E-04  1.19E-03    0    1       47673  7.17E-04    0    1        2963
  7.2004      1778.800       302    6.54E-04  1.17E-03    0    1       49649  7.26E-04    0    1        7433
  7.4005      1778.600       306    6.67E-04  1.16E-03    0    1       50390  7.41E-04    0    1       11976
  7.6001      1778.400       308    6.51E-04  1.14E-03    0    1       52366  7.23E-04    0    1        8665
  7.8005      1778.200       309    6.29E-04  1.13E-03    0    1       55577  6.99E-04    0    1        3704
  8.0006      1777.999       311    6.47E-04  1.13E-03    0    1       57553  7.19E-04    0    1       12489
  8.2002      1777.800       313    6.41E-04  1.12E-03    0    1       58541  7.13E-04    0    1        9160
  8.4004      1777.600       318    6.39E-04  1.11E-03    0    1       61752  7.10E-04    0    1       12983
  8.6002      1777.400       316    6.16E-04  1.10E-03    0    1       62740  6.84E-04    0    1        4445
  8.8005      1777.199       318    6.45E-04  1.08E-03    0    1       65951  7.17E-04    0    1       14256
  9.0003      1777.000       323    6.17E-04  1.08E-03    0    1       66939  6.86E-04    0    1        9655
  9.2001      1776.800       324    6.08E-04  1.08E-03    0    1       69162  6.75E-04    0    1        4939
  9.4004      1776.600       323    6.11E-04  1.09E-03    0    1       72373  6.79E-04    0    1        5186
  9.6003      1776.400       329    6.13E-04  1.09E-03    0    1       74596  6.81E-04    0    1       13792
  9.8002      1776.200       331    6.15E-04  1.08E-03    0    1       75584  6.83E-04    0    1       15984
  10.000      1776.000       330    5.89E-04  1.08E-03    0    1       77807  6.54E-04    0    1        5680
  10.201      1775.799       332    5.97E-04  1.39E-03    0    1       81018  6.64E-04    0    1        9660
  10.400      1775.600       338    5.91E-04  1.08E-03    0    1       83241  6.57E-04    0    1       10645
  10.600      1775.400       339    5.91E-04  1.09E-03    0    1       85464  6.56E-04    0    1        6174
  10.800      1775.200       335    5.81E-04  1.08E-03    0    1       86452  6.45E-04    0    1        6421
  11.000      1775.000       343    5.85E-04  1.09E-03    0    1       88675  6.50E-04    0    1       11140
  11.200      1774.800       345    5.89E-04  1.09E-03    0    1       91886  6.55E-04    0    1       10403
  11.400      1774.600       345    5.66E-04  1.04E-03    0    1       34302  6.29E-04    0    1        6915
  11.600      1774.400       347    5.80E-04  9.88E-04    0    1       35537  6.45E-04    0    1        7162
  11.800      1774.200       352    5.73E-04  9.28E-04    0    1       38007  6.36E-04    0    1       11635
  12.000      1774.000       352    5.80E-04  8.64E-04    0    1       41959  6.44E-04    0    1       20660
  12.200      1773.800       350    5.53E-04  8.23E-04    0    1       44923  6.15E-04    0    1        7656
  12.400      1773.600       355    5.58E-04  7.78E-04    0    1       48134  6.21E-04    0    1       12130
  12.600      1773.400       358    5.70E-04  7.35E-04    0    1       50357  6.34E-04    0    1       19194
  12.800      1773.200       359    5.53E-04  6.98E-04    0    1       54062  6.14E-04    0    1        8150
  13.000      1773.000       360    5.47E-04  6.66E-04    0    1       57767  6.08E-04    0    1        8397
  13.200      1772.800       365    5.56E-04  6.32E-04    0    1       62954  6.18E-04    0    1       17745
  13.400      1772.600       365    5.55E-04  6.07E-04    0    1       66165  6.17E-04    0    1       18686
  13.600      1772.400       368    5.33E-04  5.93E-04    0    1       70611  5.93E-04    0    1        8891
  13.801      1772.199       370    5.43E-04  5.81E-04    0    1       76292  6.03E-04    0    1       12382
  14.000      1772.000       371    5.45E-04  5.66E-04    0    1       79750  6.05E-04    0    1       19919
  14.200      1771.800       374    5.40E-04  5.72E-04    0    1       85678  6.00E-04    0    1       19140
  14.400      1771.600       374    5.21E-04  5.69E-04    0    1       90371  5.79E-04    0    1        9632
  14.600      1771.400       377    5.32E-04  5.74E-04    0    1       95064  5.91E-04    0    1       18732
  14.800      1771.200       381    5.25E-04  5.89E-04    0    1       98522  5.84E-04    0    1       13125
  15.000      1771.000       382    5.23E-04  6.02E-04    0    1      102968  5.81E-04    0    1       14110
  15.200      1770.800       385    5.12E-04  6.21E-04    0    1      107414  5.68E-04    0    1       10373
  15.400      1770.600       382    5.23E-04  6.44E-04    0    1      111613  5.81E-04    0    1       13620
  15.601      1770.399       387    5.22E-04  6.64E-04    0    1      115565  5.79E-04    0    1       14605
  15.800      1770.200       391    5.12E-04  6.93E-04    0    1      119517  5.69E-04    0    1       10867
  16.000      1770.000       388    5.04E-04  7.22E-04    0    1      124210  5.60E-04    0    1       11114
  16.200      1769.800       394    5.14E-04  7.46E-04    0    1      126680  5.72E-04    0    1       19719
  16.400      1769.600       397    5.03E-04  7.89E-04    0    1      131126  5.59E-04    0    1       14362
  16.600      1769.400       397    4.94E-04  8.25E-04    0    1      133102  5.49E-04    0    1       11608
  16.800      1769.200       396    5.02E-04  8.44E-04    0    1      137301  5.58E-04    0    1       21114
  17.000      1769.000       403    4.94E-04  8.82E-04    0    1      140265  5.48E-04    0    1       14857
  17.200      1768.800       406    5.05E-04  9.05E-04    0    1      142982  5.61E-04    0    1       12102
  17.400      1768.600       401    4.85E-04  9.48E-04    0    1      145699  5.39E-04    0    1       12349
  17.600      1768.400       409    4.91E-04  9.61E-04    0    1      147181  5.46E-04    0    1       20706
  17.800      1768.200       411    4.97E-04  1.24E-03    0    1      150639  5.52E-04    0    1       24929
  18.000      1768.000       409    4.76E-04  1.02E-03    0    1      153109  5.29E-04    0    1       12843
  18.200      1767.800       410    4.89E-04  1.16E-03    0    1      163022  5.43E-04    0    1       16585
  18.400      1767.600       416    4.84E-04  1.18E-03    0    1      163763  5.38E-04    0    1       23134
  18.600      1767.400       416    4.69E-04  1.09E-03    0    1      159778  5.22E-04    0    1       13337
  18.800      1767.200       419    4.80E-04  1.10E-03    0    1      160766  5.34E-04    0    1       23400
  19.000      1767.000       422    4.76E-04  1.12E-03    0    1      163977  5.29E-04    0    1       17327
  19.200      1766.800       423    4.65E-04  1.14E-03    0    1      165953  5.17E-04    0    1       13831
  19.400      1766.600       425    4.73E-04  1.14E-03    0    1      167929  5.25E-04    0    1       23647
  19.600      1766.400       428    4.70E-04  1.17E-03    0    1      169905  5.22E-04    0    1       22589
  19.800      1766.200       426    4.66E-04  1.19E-03    0    1      170646  5.18E-04    0    1       22122
  20.000      1766.000       433    4.65E-04  1.19E-03    0    1      180312  5.17E-04    0    1       22835
  20.200      1765.800       433    4.52E-04  1.18E-03    0    1      181053  5.02E-04    0    1       14572
  20.400      1765.600       437    4.61E-04  1.21E-03    0    1      176327  5.12E-04    0    1       21194
  20.600      1765.400       439    4.59E-04  1.19E-03    0    1      185993  5.10E-04    0    1       24073
  20.800      1765.200       438    4.52E-04  1.18E-03    0    1      186734  5.02E-04    0    1       17827
  21.000      1765.000       445    4.52E-04  1.22E-03    0    1      181761  5.02E-04    0    1       18812
  21.200      1764.800       444    4.42E-04  1.20E-03    0    1      191674  4.91E-04    0    1       15313
  21.400      1764.600       444    4.50E-04  1.18E-03    0    1      192415  5.00E-04    0    1       25112
  21.600      1764.400       452    4.43E-04  1.23E-03    0    1      187195  4.92E-04    0    1       19307
  21.800      1764.200       449    4.45E-04  1.18E-03    0    1      197355  4.94E-04    0    1       23821
  22.000      1764.000       454    4.43E-04  1.18E-03    0    1      198096  4.92E-04    0    1       22181
  22.200      1763.800       455    4.35E-04  1.52E-03    0    1      199825  4.84E-04    0    1       16054
  22.400      1763.600       458    4.42E-04  1.18E-03    0    1      203036  4.91E-04    0    1       19064
  22.600      1763.400       459    4.28E-04  1.17E-03    0    1      203777  4.76E-04    0    1       16301
  22.800      1763.200       461    4.38E-04  1.18E-03    0    1      205753  4.87E-04    0    1       19312
  23.000      1763.000       464    4.32E-04  1.18E-03    0    1      208717  4.80E-04    0    1       20297
  23.200      1762.800       462    4.30E-04  1.17E-03    0    1      209458  4.78E-04    0    1       24839
  23.400      1762.600       469    4.26E-04  1.18E-03    0    1      211434  4.73E-04    0    1       19807
  23.600      1762.400       468    4.24E-04  1.17E-03    0    1      213410  4.71E-04    0    1       20792
  23.800      1762.200       474    4.24E-04  1.16E-03    0    1      216374  4.71E-04    0    1       24407
  24.000      1762.000       472    4.17E-04  1.18E-03    0    1      218350  4.64E-04    0    1       17289
  24.200      1761.800       477    4.25E-04  1.16E-03    0    1      219091  4.72E-04    0    1       23415
  24.400      1761.600       477    4.11E-04  1.17E-03    0    1      221067  4.57E-04    0    1       17536
  24.600      1761.400       479    4.20E-04  1.16E-03    0    1      223043  4.67E-04    0    1       25623
  24.800      1761.200       481    4.10E-04  1.18E-03    0    1      217329  4.56E-04    0    1       17783
  25.000      1761.000       478    4.15E-04  1.16E-03    0    1      227983  4.61E-04    0    1       25367
  25.200      1760.800       489    4.12E-04  1.17E-03    0    1      229959  4.58E-04    0    1       25147
  25.400      1760.600       486    4.11E-04  1.15E-03    0    1      230700  4.56E-04    0    1       21292
  25.600      1760.400       491    4.15E-04  1.15E-03    0    1      232676  4.61E-04    0    1       25614
  25.800      1760.200       489    4.07E-04  1.15E-03    0    1      234652  4.52E-04    0    1       26041
  26.000      1760.000       496    4.05E-04  1.15E-03    0    1      236628  4.50E-04    0    1       27062
  26.200      1759.800       793    2.34E-04  2.34E-04    1    2       22221  4.52E-04    0    1       26288
  26.400      1759.600       831    2.46E-04  2.46E-04    1    2       26169  4.45E-04    0    1       24648
  26.600      1759.400       795    2.51E-04  2.51E-04    1    2       29874  4.45E-04    0    1       26109
  26.800      1759.200       806    2.27E-04  2.27E-04    1    2       27028  4.44E-04    0    1       24895
  27.000      1759.000       877    2.39E-04  2.39E-04    1    2       30242  4.49E-04    0    1       31012
  27.200      1758.800       936    2.21E-04  2.21E-04    1    2       29588  4.52E-04    0    1       31783
  27.400      1758.600       886    2.25E-04  2.25E-04    1    2       33784  4.66E-04    0    1       50868
  27.600      1758.400       840    2.38E-04  2.38E-04    1    2       37733  4.61E-04    0    1       50216
  27.800      1758.200       799    2.65E-04  2.65E-04    1    2       41682  4.59E-04    0    1       49139
  28.000      1758.000       761    2.69E-04  2.69E-04    1    2       45136  4.56E-04    0    1       51115
  28.200      1757.800       729    2.74E-04  2.74E-04    1    2       48343  4.57E-04    0    1       52844
  28.400      1757.600       702    2.87E-04  2.87E-04    1    2       51552  4.57E-04    0    1       56155
  28.600      1757.400       675    2.94E-04  2.94E-04    1    2       54514  4.58E-04    0    1       56636
  28.800      1757.200       662    3.14E-04  3.14E-04    1    2       57477  4.59E-04    0    1       56649
  29.000      1757.000       697    2.75E-04  2.75E-04    1    2       56892  4.56E-04    0    1       56899
  29.200      1756.800       737    2.64E-04  2.64E-04    1    2       56904  4.60E-04    0    1       63650
  29.400      1756.600       739    2.78E-04  2.78E-04    1    2       59140  4.56E-04    0    1       63797
  29.600      1756.400       697    2.84E-04  2.84E-04    1    2       62342  4.52E-04    0    1       62824
  29.800      1756.200       708    2.79E-04  2.79E-04    1    2       63068  4.50E-04    0    1       62816
  30.000      1756.000       744    2.59E-04  2.59E-04    1    2       64046  4.61E-04    0    1       73840
  30.200      1755.800       754    2.63E-04  2.63E-04    1    2       66031  4.61E-04    0    1       77135
  30.400      1755.600       761    2.66E-04  2.66E-04    1    2       68266  4.57E-04    0    1       73191
  30.600      1755.400       718    2.83E-04  2.83E-04    1    2       70971  4.52E-04    0    1       72944
  30.800      1755.200       715    2.81E-04  2.81E-04    1    2       74179  4.69E-04    0    1       91226
  31.000      1755.000       679    2.94E-04  2.94E-04    1    2       77137  4.63E-04    0    1       78377
  31.200      1754.800       694    2.79E-04  2.79E-04    1    2       78380  4.58E-04    0    1       85301
  31.400      1754.600       735    2.67E-04  2.67E-04    1    2       78392  4.58E-04    0    1       78640
  31.600      1754.400       746    2.66E-04  2.66E-04    1    2       80135  4.61E-04    0    1       91467
  31.800      1754.200       714    2.88E-04  2.88E-04    1    2       83836  4.55E-04    0    1       85548
  32.000      1754.000       695    2.89E-04  2.89E-04    1    2       85551  4.56E-04    0    1       86526
  32.200      1753.800       726    2.70E-04  2.70E-04    1    2       86527  4.51E-04    0    1       87514
  32.400      1753.600       718    2.93E-04  2.93E-04    1    2       89734  4.58E-04    0    1       94208
  32.600      1753.400       706    2.78E-04  2.78E-04    1    2       91715  4.71E-04    0    1       94455
  32.800      1753.200       742    2.68E-04  2.68E-04    1    2       92223  4.63E-04    0    1       98625
  33.000      1753.000       734    2.80E-04  2.80E-04    1    2       95196  4.58E-04    0    1       97647
  33.200      1752.800       694    2.82E-04  2.82E-04    1    2       97654  4.75E-04    0    1       97650
  33.400      1752.600       720    2.68E-04  2.68E-04    1    2       98135  4.65E-04    0    1      112711
  33.600      1752.400       740    2.68E-04  2.68E-04    1    2      100360  4.56E-04    0    1      102596
  33.800      1752.200       743    2.75E-04  2.75E-04    1    2      102349  4.56E-04    0    1      106040
  34.000      1752.000       707    2.78E-04  2.78E-04    1    2      105056  4.61E-04    0    1      114844
  34.200      1751.800       722    2.85E-04  2.85E-04    1    2      107525  4.58E-04    0    1      109504
  34.400      1751.600       693    3.03E-04  3.03E-04    1    2      110738  4.64E-04    0    1      117808
  34.600      1751.600       666    2.92E-04  2.92E-04    1    2      111725  4.66E-04    0    1      118388
  34.800      1751.600       656    3.10E-04  3.10E-04    1    2      112716  4.59E-04    0    1      116412
  35.000      1751.625       613    3.22E-04  3.22E-04    1    2      113697  4.69E-04    0    1      120200
  35.200      1751.625       621    3.21E-04  3.21E-04    1    2      113698  4.77E-04    0    1      119376
  35.400      1751.625       612    3.26E-04  3.26E-04    1    2      113954  4.66E-04    0    1      117400
  35.600      1751.625       582    3.51E-04  3.51E-04    1    2      114439  4.71E-04    0    1      121108
  35.800      1751.625       596    3.41E-04  3.41E-04    1    2      114437  4.72E-04    0    1      119379
  36.000      1751.625       592    3.46E-04  3.46E-04    1    2      115182  4.79E-04    0    1      124323
  36.200      1751.625       581    3.41E-04  3.41E-04    1    2      115428  4.65E-04    0    1      119374
  36.400      1751.625       561    3.65E-04  3.65E-04    1    2      117809  4.69E-04    0    1      123819
  36.600      1751.625       564    3.47E-04  3.47E-04    1    2      116165  4.66E-04    0    1      121678
  36.800      1751.625       567    3.55E-04  3.55E-04    1    2      115925  4.70E-04    0    1      119044
  37.000      1751.625       556    3.53E-04  3.53E-04    1    2      116822  4.63E-04    0    1      118797
  37.200      1751.625       560    3.58E-04  3.58E-04    1    2      116575  4.62E-04    0    1      118056
  37.400      1751.625       566    3.56E-04  3.56E-04    1    2      116416  4.61E-04    0    1      117809
  37.600      1751.625       557    3.68E-04  3.68E-04    1    2      116821  4.62E-04    0    1      117562
  37.800      1751.625       552    3.61E-04  3.61E-04    1    2      117069  4.63E-04    0    1      120858
  38.000      1751.625       551    3.68E-04  3.68E-04    1    2      117563  4.65E-04    0    1      118056
  38.200      1751.625       540    3.69E-04  3.69E-04    1    2      117648  4.67E-04    0    1      118550
  38.400      1751.625       535    3.72E-04  3.72E-04    1    2      117648  4.67E-04    0    1      122834
  38.600      1751.625       526    3.84E-04  3.84E-04    1    2      117893  4.61E-04    0    1      119202
  38.800      1751.625       536    3.63E-04  3.63E-04    1    2      117400  4.65E-04    0    1      118882
  39.000      1751.625       533    3.82E-04  3.82E-04    1    2      117647  4.76E-04    0    1      120279
  39.200      1751.625       529    3.74E-04  3.74E-04    1    2      117647  4.65E-04    0    1      123403
  39.400      1751.650       539    3.63E-04  3.63E-04    1    2      117400  4.73E-04    0    1      119450
  39.600      1751.650       535    3.85E-04  3.85E-04    1    2      117648  4.63E-04    0    1      120609
  39.800      1751.650       521    3.76E-04  3.76E-04    1    2      117646  4.61E-04    0    1      118633
  40.000      1751.650       526    3.77E-04  3.77E-04    1    2      117893  4.73E-04    0    1      130159
  40.200      1751.650       524    3.84E-04  3.84E-04    1    2      117894  4.75E-04    0    1      121844
  40.400      1751.650       527    3.75E-04  3.75E-04    1    2      117647  4.69E-04    0    1      125550
  40.600      1751.650       524    3.74E-04  3.74E-04    1    2      117646  4.62E-04    0    1      118139
  40.800      1751.650       520    3.81E-04  3.81E-04    1    2      117893  4.75E-04    0    1      121514
  41.000      1751.650       522    3.76E-04  3.76E-04    1    2      117894  4.72E-04    0    1      121514
  41.200      1751.650       523    3.83E-04  3.83E-04    1    2      118141  4.69E-04    0    1      121514
  41.400      1751.650       523    3.93E-04  3.93E-04    1    2      118710  4.68E-04    0    1      125549
  41.600      1751.650       517    3.98E-04  3.98E-04    1    2      118957  4.69E-04    0    1      121514
  41.800      1751.650       518    3.72E-04  3.72E-04    1    2      117893  4.65E-04    0    1      119622
  42.000      1751.650       519    3.82E-04  3.82E-04    1    2      118141  4.64E-04    0    1      121845
  42.200      1751.625       523    3.82E-04  3.82E-04    1    2      117893  4.66E-04    0    1      121761
  42.400      1751.625       533    3.83E-04  3.83E-04    1    2      117646  4.62E-04    0    1      118387
  42.600      1751.625       531    3.77E-04  3.77E-04    1    2      117646  4.65E-04    0    1      117892
  42.800      1751.625       532    3.70E-04  3.70E-04    1    2      117723  4.65E-04    0    1      121514
  43.000      1751.625       536    3.73E-04  3.73E-04    1    2      117648  4.65E-04    0    1      121267
  43.200      1751.625       531    3.89E-04  3.89E-04    1    2      118140  4.64E-04    0    1      121267
  43.400      1751.625       529    3.67E-04  3.67E-04    1    2      117723  4.64E-04    0    1      121020
  43.600      1751.625       539    3.66E-04  3.66E-04    1    2      117474  4.64E-04    0    1      121020
  43.800      1751.625       533    3.67E-04  3.67E-04    1    2      117474  4.63E-04    0    1      120773
  44.000      1751.625       532    3.77E-04  3.77E-04    1    2      117723  4.62E-04    0    1      117971
  44.200      1751.625       532    3.84E-04  3.84E-04    1    2      117970  4.63E-04    0    1      120526
  44.400      1751.625       529    3.82E-04  3.82E-04    1    2      117969  4.63E-04    0    1      120526
  44.600      1751.625       530    3.81E-04  3.81E-04    1    2      117969  4.63E-04    0    1      120279
  44.800      1751.625       532    3.79E-04  3.79E-04    1    2      117970  4.62E-04    0    1      120279
  45.000      1751.625       527    3.76E-04  3.76E-04    1    2      118217  4.62E-04    0    1      120032
  45.200      1751.625       527    3.79E-04  3.79E-04    1    2      118304  4.62E-04    0    1      120032
  45.400      1751.625       532    3.77E-04  3.77E-04    1    2      117969  4.62E-04    0    1      118711
  45.600      1751.625       526    3.74E-04  3.74E-04    1    2      118057  4.62E-04    0    1      119785
  45.800      1751.625       526    3.87E-04  3.87E-04    1    2      118056  4.62E-04    0    1      119538
  46.000      1751.625       532    3.76E-04  3.76E-04    1    2      118141  4.62E-04    0    1      119538
  46.200      1751.625       531    3.78E-04  3.78E-04    1    2      118142  4.62E-04    0    1      119291
  46.400      1751.625       529    3.83E-04  3.83E-04    1    2      117809  4.62E-04    0    1      119291
  46.600      1751.625       527    3.82E-04  3.82E-04    1    2      117809  4.62E-04    0    1      119291
  46.800      1751.625       529    3.67E-04  3.67E-04    1    2      117810  4.62E-04    0    1      119538
  47.000      1751.625       530    3.71E-04  3.71E-04    1    2      117810  4.62E-04    0    1      119291
  47.200      1751.625       530    3.80E-04  3.80E-04    1    2      118463  4.62E-04    0    1      119291
  47.400      1751.625       531    3.80E-04  3.80E-04    1    2      117809  4.61E-04    0    1      119374
  47.600      1751.625       533    3.75E-04  3.75E-04    1    2      117562  4.62E-04    0    1      119291
  47.800      1751.625       535    3.74E-04  3.74E-04    1    2      117563  4.62E-04    0    1      119291
  48.000      1751.625       538    3.76E-04  3.76E-04    1    2      117562  4.63E-04    0    1      119044
  48.200      1751.625       539    3.60E-04  3.60E-04    1    2      117316  4.62E-04    0    1      119291
  48.400      1751.625       542    3.72E-04  3.72E-04    1    2      117315  4.62E-04    0    1      119044
  48.600      1751.625       545    3.66E-04  3.66E-04    1    2      117068  4.62E-04    0    1      118797
  48.800      1751.625       546    3.68E-04  3.68E-04    1    2      117069  4.62E-04    0    1      118797
  49.000      1751.625       548    3.71E-04  3.71E-04    1    2      117068  4.62E-04    0    1      118550
  49.200      1751.625       549    3.70E-04  3.70E-04    1    2      117068  4.62E-04    0    1      118550
  49.400      1751.625       549    3.71E-04  3.71E-04    1    2      117068  4.61E-04    0    1      118550
  49.600      1751.625       549    3.68E-04  3.68E-04    1    2      117068  4.61E-04    0    1      118797
  49.800      1751.625       549    3.70E-04  3.70E-04    1    2      117068  4.61E-04    0    1      118550
  50.000      1751.625       549    3.65E-04  3.65E-04    1    2      117399  4.61E-04    0    1      118550
