 #    Sim.      Temp.     Ph.-F.   Time-step    dt PF  Ph.1 Ph.2     Pointer
 #  time [s]     [K]       steps      [s]        [s]   (PF) (PF)        (PF)
  0.0000      1100.000         0    8.63E-03  0.00E+00    0    0           0
 0.40000      1100.000       670    9.01E-04  1.29E-03    1    1       57745
 0.80000      1100.000       699    4.34E-04  6.20E-04    1    1       90154
  1.2000      1100.000       667    2.35E-03  3.35E-03    1    1       38016
  1.6000      1100.000       256    3.03E-03  4.32E-03    1    1       38016
  2.0000      1100.000       296    1.51E-03  2.16E-03    1    1      122361
  2.4000      1100.000       255    5.94E-03  8.48E-03    1    1       15565
  2.8000      1100.000       156    4.09E-03  5.84E-03    1    1       53887
  3.2000      1100.000       170    2.92E-03  4.17E-03    1    1       87794
  3.6000      1100.000       180    3.55E-03  5.08E-03    1    1      115193
  4.0000      1100.000       203    7.29E-04  1.04E-03    1    1       17726
  4.4033      1100.000       142    4.14E-03  5.91E-03    1    1       39724
  4.8000      1100.000       181    5.16E-03  7.38E-03    1    1       69100
  5.2001      1100.000       144    2.84E-03  4.06E-03    1    1       18135
  5.6009      1100.000       159    3.46E-03  4.94E-03    1    1       60512
  6.0000      1100.000       191    2.48E-03  3.54E-03    1    1      117247
  6.4007      1100.000       175    4.89E-03  6.98E-03    1    1       16506
  6.8024      1100.000       227    3.18E-03  4.54E-03    1    1       16507
  7.2000      1100.000       169    2.80E-03  4.00E-03    1    1       48357
  7.6027      1100.000       125    3.55E-03  5.08E-03    1    1       74855
  8.0000      1100.000       127    4.00E-03  5.72E-03    1    1      122599
  8.4000      1100.000       144    4.54E-03  6.49E-03    1    1       49962
  8.8012      1100.000       141    4.19E-03  7.38E-03    1    1       52432
  9.2026      1100.000       138    3.08E-03  6.14E-03    1    1       55375
  9.6000      1100.000       137    3.82E-03  5.46E-03    1    1      101169
  10.000      1100.000       143    4.36E-03  6.22E-03    1    1      106108
  10.402      1100.000       161    2.93E-03  5.23E-03    1    1       64165
  10.800      1100.000       144    2.43E-03  3.48E-03    1    1       54609
  11.201      1100.000       178    2.20E-03  3.14E-03    1    1      115635
  11.603      1100.000       152    3.29E-03  4.69E-03    1    1      113582
  12.000      1100.000       163    2.60E-03  3.72E-03    1    1       17860
  12.402      1100.000       231    3.07E-03  5.47E-03    1    1      117039
  12.801      1100.000       168    2.97E-03  4.86E-03    1    1       43635
  13.200      1100.000       177    3.89E-03  5.55E-03    1    1      100134
  13.604      1100.000       148    4.93E-03  7.04E-03    1    1        6636
  14.000      1100.000       120    3.56E-03  5.08E-03    1    1       21156
  14.400      1100.000       147    2.59E-03  3.70E-03    1    1       10409
  14.801      1100.000       126    3.68E-03  5.26E-03    1    1       53940
  15.202      1100.000       139    4.02E-03  5.75E-03    1    1      121991
  15.600      1100.000       134    4.50E-03  6.43E-03    1    1       16741
  16.000      1100.000       113    3.72E-03  5.31E-03    1    1      114015
  16.403      1100.000       127    4.53E-03  6.47E-03    1    1       53999
  16.800      1100.000       154    1.56E-03  2.23E-03    1    1       97082
  17.201      1100.000       136    2.64E-03  3.77E-03    1    1       71088
  17.601      1100.000       161    2.30E-03  3.29E-03    1    1       35335
  18.000      1100.000       128    4.32E-03  6.17E-03    1    1       69397
  18.402      1100.000       131    3.36E-03  4.80E-03    1    1      103118
  18.801      1100.000       117    4.20E-03  6.00E-03    1    1       47254
  19.200      1100.000       123    3.70E-03  5.29E-03    1    1       62895
  19.602      1100.000       147    3.82E-03  5.46E-03    1    1       32595
  20.000      1100.000       127    2.82E-03  5.45E-03    1    1       23356
  20.400      1100.000       116    5.59E-03  7.99E-03    1    1        5077
  20.800      1100.000       123    1.73E-03  2.47E-03    1    1      103032
  21.200      1100.000       131    5.38E-03  7.68E-03    1    1      108921
  21.600      1100.000       119    1.94E-03  2.78E-03    1    1      103032
  22.000      1100.000       129    3.87E-03  5.53E-03    1    1      103032
  22.401      1100.000       133    6.20E-03  9.80E-03    1    1      119043
  22.800      1100.000       108    6.58E-03  9.40E-03    1    1       86969
  23.201      1100.000        97    5.42E-03  7.75E-03    1    1       87371
  23.601      1100.000       137    2.61E-03  3.72E-03    1    1       53290
  24.000      1100.000       131    2.27E-03  3.24E-03    1    1       30168
  24.402      1100.000       180    2.63E-03  3.76E-03    1    1       29758
  24.800      1100.000       162    2.12E-03  3.04E-03    1    1       67377
  25.200      1100.000       165    1.46E-03  2.08E-03    1    1       29757
  25.601      1100.000       157    4.44E-03  8.70E-03    1    1      112712
  26.000      1100.000       142    2.36E-03  3.37E-03    1    1       30949
  26.400      1100.000       140    1.91E-03  2.72E-03    1    1      104233
  26.800      1100.000       135    3.93E-03  7.17E-03    1    1       30949
  27.201      1100.000       200    1.72E-03  2.45E-03    1    1       30947
  27.600      1100.000       236    1.43E-03  2.04E-03    1    1       30537
  28.000      1100.000       197    1.71E-03  2.45E-03    1    1       30540
  28.401      1100.000       182    1.93E-03  2.76E-03    1    1       30948
  28.800      1100.000       174    2.82E-03  1.23E-02    1    1       92894
  29.202      1100.000       106    5.27E-03  7.53E-03    1    1      119898
  29.603      1100.000       145    3.19E-03  8.29E-03    1    1      113706
  30.000      1100.000       148    7.85E-03  1.22E-02    1    1       69069
  30.404      1100.000        93    8.63E-03  1.23E-02    1    1       92487
  30.800      1100.000       104    5.38E-03  9.21E-03    1    1        9516
  31.200      1100.000       133    6.00E-03  8.57E-03    1    1        1144
  31.602      1100.000        92    3.84E-03  5.49E-03    1    1       92272
  32.000      1100.000       114    2.36E-03  3.37E-03    1    1       72910
  32.400      1100.000       108    3.46E-03  4.95E-03    1    1       91628
  32.803      1100.000       139    4.16E-03  5.94E-03    1    1       84596
  33.202      1100.000        80    7.46E-03  1.07E-02    1    1       72103
  33.600      1100.000       104    5.35E-03  7.64E-03    1    1      111887
  34.000      1100.000       107    5.84E-03  8.34E-03    1    1       59117
  34.406      1100.000        86    7.48E-03  1.08E-02    1    1      126190
  34.800      1100.000        83    8.40E-03  1.23E-02    1    1       91674
  35.203      1100.000        92    4.78E-03  6.83E-03    1    1       26486
  35.604      1100.000       102    8.63E-03  1.23E-02    1    1       91674
  36.000      1100.000       101    8.63E-03  1.23E-02    1    1       91674
  36.403      1100.000       104    4.85E-03  7.38E-03    1    1       10133
  36.800      1100.000       129    3.45E-03  1.23E-02    1    1       91675
  37.200      1100.000       139    5.01E-03  7.16E-03    1    1       49186
  37.601      1100.000       165    2.44E-03  3.48E-03    1    1       15412
  38.000      1100.000       182    1.98E-03  2.83E-03    1    1       15412
  38.400      1100.000       177    1.43E-03  2.04E-03    1    1       15822
  38.800      1100.000       150    3.72E-03  5.32E-03    1    1      129776
  39.202      1100.000       108    1.83E-03  2.62E-03    1    1       83774
  39.600      1100.000       133    3.96E-03  5.65E-03    1    1       27915
  40.000      1100.000       110    8.44E-03  1.21E-02    1    1        1143
  40.409      1100.000        83    8.63E-03  1.23E-02    1    1       90853
  40.800      1100.000       113    3.00E-03  1.23E-02    1    1       90853
  41.200      1100.000       108    3.43E-03  4.89E-03    1    1      103029
  41.601      1100.000        82    6.38E-03  9.11E-03    1    1       82954
  42.000      1100.000        93    5.67E-03  1.08E-02    1    1      129011
  42.401      1100.000       132    2.29E-03  3.27E-03    1    1        1555
  42.808      1100.000       129    8.63E-03  1.23E-02    1    1       90853
  43.200      1100.000        82    5.37E-03  7.67E-03    1    1        6612
  43.604      1100.000        93    5.45E-03  7.79E-03    1    1        7097
  44.000      1100.000       102    6.39E-03  9.13E-03    1    1      127105
  44.400      1100.000       105    4.71E-03  1.23E-02    1    1       90852
  44.801      1100.000        95    2.53E-03  3.62E-03    1    1        1555
  45.200      1100.000       127    2.36E-03  3.38E-03    1    1        1554
  45.600      1100.000       135    5.08E-03  8.39E-03    1    1      124143
  46.000      1100.000        88    4.71E-03  6.72E-03    1    1      124143
  46.402      1100.000        98    7.35E-03  1.05E-02    1    1        7024
  46.800      1100.000       115    2.99E-03  4.27E-03    1    1       86626
  47.203      1100.000        97    5.79E-03  8.27E-03    1    1      110431
  47.601      1100.000       136    5.63E-03  9.20E-03    1    1      110019
  48.000      1100.000       149    4.06E-03  5.79E-03    1    1       82132
  48.405      1100.000       104    7.56E-03  1.23E-02    1    1       84259
  48.801      1100.000        98    2.96E-03  4.22E-03    1    1       83486
  49.200      1100.000       116    1.99E-03  2.84E-03    1    1      105907
  49.601      1100.000       103    3.61E-03  5.16E-03    1    1       72760
  50.000      1100.000       127    2.91E-03  4.16E-03    1    1       72760
